Polarization of Light 'Brewsters' Data File Wed, Oct 22, 2025 4:27 PM
Sensor Position (Degrees)	Light Intensity (Volts)
180.00000	0.26290
180.00000	0.25871
180.00000	0.25452
180.00000	0.25855
180.00000	0.25887
180.00000	0.26258
180.00000	0.25694
180.00000	0.25098
180.00000	0.25307
180.00000	0.25324
180.00000	0.25243
180.00000	0.26306
180.00000	0.25742
180.00000	0.26032
180.00000	0.26016
180.00000	0.26403
180.00000	0.25871
180.00000	0.25179
180.00000	0.25420
180.00000	0.28143
180.00000	0.25904
180.00000	0.25614
180.00000	0.27418
180.00000	0.28787
180.00000	0.27080
180.00000	0.26484
180.00000	0.26999
180.00000	0.27805
180.00000	0.27660
180.00000	0.27144
180.00000	0.27692
180.00000	0.27531
180.00000	0.27370
180.00000	0.27321
180.00000	0.27402
180.00000	0.27144
180.00000	0.27563
180.00000	0.27321
180.00000	0.27160
180.00000	0.26548
180.00000	0.27821
180.00000	0.27579
180.00000	0.26564
180.00000	0.27096
180.00000	0.27064
180.00000	0.27499
180.00000	0.27064
180.00000	0.27209
180.00000	0.27466
180.00000	0.32847
180.00000	0.34217
180.00000	0.34636
180.00000	0.34346
180.00000	0.33202
180.00000	0.33186
180.00000	0.34314
180.00000	0.33363
180.00000	0.32960
180.00000	0.33750
180.00000	0.33315
180.00000	0.33734
180.00000	0.32992
180.00000	0.33460
180.00000	0.33717
180.00000	0.33653
180.00000	0.33331
180.00000	0.33282
180.00000	0.33750
180.00000	0.33476
180.00000	0.32541
180.00000	0.33911
180.00000	0.33363
180.00000	0.33540
180.00000	0.33959
180.00000	0.33605
180.00000	0.33202
180.00000	0.33717
180.00000	0.33411
180.00000	0.32686
180.00000	0.33170
180.00000	0.33121
180.00000	0.32880
180.00000	0.33218
180.00000	0.33766
180.00000	0.33121
180.00000	0.33137
180.00000	0.33363
180.00000	0.33685
180.00000	0.32928
180.00000	0.33315
180.00000	0.33137
180.00000	0.33202
180.00000	0.32767
180.00000	0.33137
180.00000	0.33347
180.00000	0.33266
180.00000	0.33299
180.00000	0.33315
180.00000	0.33170
180.00000	0.33605
180.00000	0.33395
180.00000	0.32702
180.00000	0.32751
180.00000	0.32912
180.00000	0.33250
180.00000	0.32928
180.00000	0.33250
180.00000	0.33605
180.00000	0.33105
180.00000	0.32896
180.00000	0.33556
180.00000	0.33363
180.00000	0.33315
180.00000	0.33186
180.00000	0.32992
180.00000	0.33460
180.00000	0.33202
180.00000	0.33331
180.00000	0.33315
180.00000	0.33427
180.00000	0.33347
180.00000	0.33218
180.00000	0.32944
180.00000	0.33121
180.00000	0.33427
180.00000	0.32590
180.00000	0.33379
180.00000	0.32864
180.00000	0.32896
180.00000	0.32654
180.00000	0.32493
180.00000	0.32574
180.00000	0.32090
180.00000	0.31929
180.00000	0.31236
180.00000	0.32606
180.00000	0.32590
180.00000	0.32267
180.00000	0.32203
180.00000	0.30769
180.00000	0.31929
180.00000	0.31075
180.00000	0.31156
180.00000	0.32074
180.01667	0.31655
180.01667	0.30834
180.01667	0.31011
180.01667	0.30479
180.03333	0.30656
180.03333	0.30850
180.03333	0.30753
180.03333	0.30495
180.03333	0.30834
180.03333	0.30076
180.03333	0.30672
180.03333	0.28965
180.03333	0.27289
180.03333	0.25678
180.01667	0.24872
179.96667	0.22343
179.83333	0.20909
179.68333	0.20506
179.46667	0.21215
179.23333	0.28997
179.08333	0.34056
178.98333	0.20104
178.81667	-0.00116
178.61667	-0.00245
178.41667	-0.00390
178.28333	-0.00406
178.20000	-0.00325
178.16667	-0.00309
178.15000	-0.00213
178.13333	-0.00325
178.11667	0.32702
178.10000	0.03026
178.06667	-0.00052
178.03333	-0.00100
177.96667	-0.00197
177.83333	-0.00277
177.66667	-0.00180
177.50000	-0.00100
177.36667	0.16205
177.21667	0.28949
177.10000	-0.00068
177.03333	-0.00052
176.98333	0.24421
176.93333	0.28900
176.85000	0.26339
176.75000	0.26693
176.66667	0.25340
176.58333	0.28191
176.48333	0.45833
176.35000	0.32380
176.20000	0.32251
176.03333	0.26016
175.86667	0.35232
175.71667	0.27160
175.60000	0.28207
175.53333	0.27305
175.43333	0.38261
175.31667	0.32251
175.13333	0.38019
174.91667	0.32155
174.68333	0.35538
174.48333	0.18654
174.28333	0.36070
174.03333	0.25742
173.83333	0.22230
173.61667	0.29174
173.43333	0.35184
173.28333	0.45656
173.08333	0.36070
172.91667	0.38100
172.71667	0.38937
172.50000	0.34185
172.26667	0.40114
172.06667	0.29545
171.85000	0.30930
171.61667	0.36601
171.36667	0.30962
171.08333	0.40210
170.83333	0.29158
170.58333	0.20829
170.33333	0.37584
170.13333	0.19942
169.95000	0.31478
169.75000	0.25211
169.51667	0.26322
169.28333	0.27821
169.03333	0.21763
168.78333	0.28723
168.60000	0.26806
168.41667	0.29400
168.20000	0.25146
167.98333	0.05072
167.81667	0.11967
167.63333	0.06554
167.46667	0.13788
167.31667	0.15302
167.15000	0.20700
166.95000	0.35892
166.75000	0.26757
166.50000	0.25597
166.21667	0.21972
165.95000	0.02558
165.71667	-0.00164
165.35000	-0.00213
164.95000	-0.00325
164.55000	-0.00197
164.13333	-0.00213
163.80000	-0.00213
163.60000	-0.00229
163.51667	-0.00132
163.46667	-0.00309
163.40000	-0.00325
163.35000	-0.00245
163.26667	0.02381
163.18333	0.14126
163.08333	-0.00052
162.93333	-0.00068
162.73333	0.30995
162.50000	0.26226
162.28333	0.30302
162.03333	0.37165
161.73333	0.33315
161.38333	0.04395
161.01667	-0.00116
160.63333	-0.00422
160.35000	-0.00406
160.11667	-0.00197
159.90000	-0.00293
159.71667	-0.00148
159.51667	-0.00261
159.31667	-0.00261
159.13333	0.01157
158.93333	0.08616
158.73333	-0.00068
158.55000	-0.00052
158.33333	0.15560
158.15000	0.16446
157.96667	0.47976
157.80000	0.38921
157.60000	0.40049
157.40000	0.44029
157.21667	0.39824
157.01667	0.41628
156.83333	0.55097
156.65000	0.59528
156.46667	0.37246
156.30000	0.56128
156.13333	0.39244
155.98333	0.55613
155.80000	0.37616
155.58333	0.49958
155.36667	0.43159
155.15000	0.45704
154.98333	0.58625
154.81667	0.41048
154.61667	0.36746
154.40000	0.40210
154.16667	0.42353
153.93333	0.41161
153.70000	0.38712
153.48333	0.43320
153.23333	0.59737
152.98333	0.45833
152.76667	0.42917
152.51667	0.19234
152.31667	0.02365
152.16667	-0.00261
152.01667	-0.00390
151.83333	0.15721
151.68333	0.49474
151.53333	-0.00068
151.40000	-0.00035
151.28333	0.72997
151.11667	0.55806
150.96667	0.68775
150.78333	0.67197
150.58333	0.39211
150.40000	0.36102
150.23333	0.41386
150.05000	0.54227
149.81667	0.50908
149.68333	0.74994
149.53333	0.82132
149.40000	0.52342
149.25000	0.54227
149.08333	0.53148
148.91667	0.65150
148.81667	0.36263
148.78333	0.21505
148.78333	0.01850
148.76667	-0.00261
148.76667	0.19765
148.71667	0.37504
148.73333	-0.00132
148.73333	-0.00068
148.73333	0.66262
148.73333	0.65956
148.73333	0.64989
148.73333	0.64039
148.73333	0.63104
148.75000	0.63056
148.75000	0.61413
148.75000	0.61670
148.75000	0.62266
148.75000	0.63249
148.75000	0.63620
148.75000	0.63346
148.75000	0.62428
148.75000	0.62460
148.75000	0.61703
148.76667	0.62105
148.76667	0.64442
148.76667	0.55339
148.76667	0.54356
148.76667	0.49039
148.76667	0.34958
148.76667	0.29045
148.76667	0.53550
148.75000	0.46751
148.75000	0.67777
148.75000	0.72159
148.75000	0.58915
148.75000	0.66182
148.73333	0.59383
148.73333	0.53083
148.73333	0.38422
148.73333	-0.00164
148.70000	-0.00406
148.55000	0.18315
148.30000	0.40790
148.16667	-0.00084
148.13333	-0.00068
148.11667	0.44754
148.08333	0.42740
148.06667	0.41064
148.05000	0.05023
148.01667	-0.00180
148.00000	-0.00164
147.98333	-0.00164
147.93333	-0.00277
147.75000	-0.00213
147.21667	0.41515
146.68333	0.55210
146.50000	-0.00100
146.43333	-0.00068
146.41667	0.60478
146.40000	0.62025
146.40000	0.63572
146.41667	0.68163
146.41667	0.81697
146.41667	0.53518
146.41667	0.61864
146.40000	0.68743
146.40000	0.63346
146.41667	0.79989
146.41667	0.76219
146.40000	0.60494
146.40000	0.64860
146.38333	0.56901
146.36667	0.48411
146.36667	0.46300
146.35000	0.46220
146.33333	0.43239
146.21667	0.57175
145.96667	0.75349
145.63333	0.52600
145.18333	0.44077
144.76667	0.08777
144.43333	-0.00197
144.16667	-0.00277
144.03333	-0.00100
143.91667	0.00061
143.75000	-0.00261
143.55000	0.00029
143.33333	0.29851
143.10000	-0.00100
142.90000	-0.00052
142.71667	0.46590
142.55000	0.75542
142.35000	0.67422
142.11667	0.34716
141.86667	0.38519
141.66667	0.16124
141.48333	0.05410
141.35000	0.01382
141.20000	0.07231
141.03333	0.20651
140.86667	0.32686
140.66667	0.60285
140.41667	0.74962
140.16667	0.78007
139.95000	0.74575
139.75000	0.71498
139.53333	0.72932
139.35000	0.72852
139.16667	0.69049
138.95000	0.71353
138.76667	0.75542
138.60000	0.62653
138.43333	0.43803
138.30000	0.57481
138.18333	0.54372
138.06667	0.95262
137.98333	0.81374
137.81667	0.67358
137.65000	0.82857
137.43333	0.65263
137.20000	0.75075
137.00000	0.68792
136.80000	0.72094
136.60000	0.74205
136.43333	0.99548
136.25000	1.02013
136.03333	0.69436
135.81667	0.93184
135.58333	1.04349
135.35000	1.01449
135.11667	0.79505
134.98333	0.80698
134.93333	0.71305
134.91667	0.75929
134.90000	0.76847
134.90000	0.79425
134.90000	0.79650
134.90000	0.79618
134.90000	0.80649
134.90000	0.80327
134.90000	0.80665
134.90000	0.79489
134.90000	0.84951
134.90000	0.81809
134.90000	0.83324
134.90000	0.84194
134.90000	0.85064
134.91667	0.82293
134.91667	0.82647
134.91667	0.73383
134.91667	0.72771
134.91667	0.83549
134.91667	0.77604
134.91667	0.93345
134.91667	0.73045
134.90000	0.99983
134.90000	0.99467
134.90000	0.71031
134.90000	0.88447
134.88333	0.99048
134.75000	0.73995
134.41667	0.38631
134.10000	0.44383
133.95000	0.79812
133.78333	0.92249
133.60000	0.73850
133.40000	0.97534
133.20000	0.69565
133.03333	0.43497
132.90000	0.10324
132.75000	0.19991
132.60000	0.40549
132.43333	0.52986
132.26667	0.78893
132.10000	0.92991
131.95000	0.88592
131.78333	0.83678
131.60000	0.76718
131.38333	1.10906
131.15000	1.12372
130.88333	1.05348
130.66667	0.79957
130.45000	1.01336
130.23333	0.79457
130.03333	0.87545
129.80000	0.91073
129.58333	0.89430
129.35000	0.90912
129.10000	1.14966
128.85000	0.77395
128.61667	1.14757
128.36667	1.13258
128.13333	0.50006
127.88333	0.20152
127.68333	0.00287
127.48333	0.02768
127.30000	0.00915
127.15000	0.03171
126.98333	0.01286
126.75000	0.02993
126.51667	0.01173
126.26667	0.26097
126.05000	0.01431
125.86667	0.03300
125.68333	0.01382
125.50000	0.06538
125.36667	-0.00035
125.21667	-0.00068
125.08333	0.65569
124.91667	0.73802
124.75000	1.01739
124.56667	1.15901
124.35000	1.00208
124.15000	1.25020
123.98333	1.41340
123.83333	0.88254
123.66667	1.00224
123.45000	0.95166
123.23333	1.25406
123.00000	1.09311
122.75000	0.94505
122.51667	0.49587
122.30000	0.15157
122.13333	0.18186
121.95000	0.09035
121.76667	0.05603
121.56667	0.02107
121.31667	0.02558
121.05000	0.04073
120.81667	0.04927
120.60000	0.07279
120.43333	-0.00035
120.30000	-0.00052
120.16667	0.76106
119.98333	0.90606
119.78333	0.87013
119.55000	0.98130
119.31667	0.93941
119.08333	0.97099
118.85000	1.02222
118.63333	1.03334
118.41667	0.96148
118.18333	0.91831
117.91667	1.12260
117.61667	1.40213
117.31667	1.22571
117.03333	1.53150
116.73333	1.40035
116.46667	1.50636
116.23333	1.64863
115.98333	1.41969
115.71667	1.44031
115.41667	1.60013
115.10000	1.54568
114.80000	1.34783
114.53333	1.54938
114.26667	1.78428
114.01667	1.79041
113.83333	1.63815
113.65000	1.49734
113.46667	1.46834
113.26667	1.29499
113.01667	1.49831
112.75000	1.51329
112.48333	1.49573
112.28333	1.45416
112.03333	1.94008
111.76667	1.68391
111.45000	1.15530
111.15000	0.28288
110.90000	0.13740
110.71667	0.30592
110.55000	0.02526
110.40000	0.05136
110.26667	-0.00100
110.15000	-0.00100
110.01667	0.29706
109.86667	0.77830
109.70000	0.91234
109.53333	1.31835
109.35000	1.13355
109.15000	1.33768
108.98333	1.36491
108.83333	1.26421
108.66667	1.27130
108.43333	1.25100
108.16667	1.42855
107.85000	1.11567
107.50000	0.88560
107.15000	0.14352
106.80000	0.06216
106.51667	0.03622
106.28333	0.04492
106.10000	0.04717
105.93333	0.05120
105.75000	0.05523
105.55000	0.05893
105.35000	0.85032
105.13333	-0.00068
104.95000	-0.00068
104.80000	1.68101
104.70000	1.72902
104.58333	1.65008
104.45000	2.12165
104.31667	2.10151
104.20000	1.81457
104.11667	2.18352
104.01667	1.82843
103.95000	1.90463
103.91667	2.00017
103.90000	1.95216
103.86667	2.24152
103.76667	1.59240
103.63333	1.89030
103.50000	1.42114
103.36667	1.26953
103.20000	0.57369
103.01667	0.06377
102.85000	0.05700
102.75000	0.05168
102.68333	0.05120
102.61667	1.44224
102.56667	2.13406
102.53333	-0.00019
102.51667	-0.00035
102.50000	1.96086
102.48333	1.74127
102.46667	1.62752
102.40000	1.57887
102.21667	1.90399
102.06667	1.68584
101.98333	1.67022
101.88333	2.13793
101.76667	2.03852
101.70000	2.17015
101.63333	2.45548
101.55000	2.24539
101.43333	2.31724
101.28333	2.32643
101.13333	2.45645
100.96667	2.22589
100.81667	2.24990
100.63333	2.24507
100.43333	1.84067
100.30000	1.79202
100.20000	0.98952
100.01667	0.94424
99.83333	1.15111
99.63333	0.28578
99.41667	0.29947
99.20000	0.25839
98.98333	1.00885
98.81667	1.12566
98.70000	1.70212
98.60000	1.69164
98.48333	2.12214
98.31667	1.87112
98.11667	1.56533
97.96667	1.73224
97.81667	2.03852
97.65000	1.89851
97.48333	2.71777
97.28333	1.70921
97.06667	1.87499
96.81667	2.67008
96.45000	0.74737
96.01667	1.97520
95.58333	0.25678
95.20000	0.26999
94.90000	0.03831
94.68333	0.03686
94.53333	0.03316
94.36667	0.03251
94.21667	0.03477
94.11667	0.05297
94.05000	0.12241
94.00000	2.54876
93.96667	-0.00084
93.95000	-0.00116
93.91667	2.72857
93.86667	2.85440
93.83333	2.52218
93.81667	0.15657
93.78333	0.05555
93.76667	0.05136
93.78333	0.05845
93.78333	0.04733
93.80000	0.05088
93.80000	0.04492
93.80000	0.04266
93.80000	0.04153
93.81667	0.04363
93.81667	0.04572
93.81667	0.04137
93.81667	0.03718
93.81667	0.04218
93.81667	0.04186
93.83333	0.04685
93.83333	0.03590
93.83333	0.03541
93.83333	0.04298
93.83333	0.04008
93.83333	0.04379
93.83333	0.05233
93.83333	0.13385
93.83333	1.42371
93.83333	-0.00100
93.83333	-0.00100
93.83333	2.59645
93.83333	3.10880
93.83333	3.35997
93.83333	2.96331
93.81667	2.55988
93.81667	0.77057
93.81667	0.60494
93.80000	0.16221
93.80000	0.14787
93.78333	0.58078
93.78333	1.07797
93.78333	1.99582
93.76667	2.46418
93.76667	2.55891
93.75000	2.34786
93.75000	2.38942
93.73333	3.21400
93.70000	2.95719
93.61667	2.13712
93.36667	2.24942
93.08333	0.31897
92.91667	0.04798
92.80000	0.05732
92.70000	0.05168
92.63333	0.04959
92.60000	0.05926
92.55000	0.06876
92.50000	0.62573
92.48333	2.80574
92.46667	-0.00084
92.46667	-0.00084
92.43333	2.92915
92.40000	2.36058
92.36667	2.81219
92.31667	2.56133
92.18333	2.36719
92.00000	1.96940
91.83333	0.46510
91.71667	0.75897
91.60000	1.46286
91.48333	1.85582
91.31667	1.88756
91.06667	2.66541
90.83333	1.13822
90.58333	0.16881
90.33333	0.17220
90.16667	0.17590
90.06667	0.97163
89.98333	1.47898
89.90000	1.46657
89.80000	1.63219
89.68333	1.43241
89.55000	1.45787
89.45000	2.31048
89.35000	2.59275
89.25000	2.66734
89.13333	2.33626
89.05000	2.12826
88.96667	2.02805
88.90000	2.64463
88.81667	2.89870
88.73333	2.52701
88.68333	3.02937
88.61667	3.41926
88.51667	3.35772
88.40000	2.01032
88.30000	2.01177
88.18333	2.71213
88.05000	4.18150
87.91667	2.25554
87.73333	2.69071
87.58333	2.30548
87.48333	2.97652
87.38333	2.43937
87.28333	2.62771
87.20000	2.44227
87.08333	2.95703
87.03333	2.26472
87.00000	2.57648
86.96667	3.22834
86.90000	4.23113
86.81667	2.94478
86.75000	2.26392
86.65000	4.30588
86.56667	3.38736
86.43333	2.87792
86.33333	3.84461
86.21667	3.63693
86.15000	2.10296
86.10000	1.05267
86.06667	1.04413
86.05000	1.05138
86.05000	1.05316
86.03333	1.47221
86.01667	1.46866
85.93333	1.95232
85.81667	1.34622
85.68333	1.03076
85.46667	0.75252
85.31667	1.12211
85.23333	1.08892
85.13333	1.61624
85.00000	2.04883
84.81667	2.43744
84.65000	2.16967
84.45000	2.00968
84.28333	3.41781
84.16667	2.69715
84.06667	3.45342
83.96667	3.34725
83.88333	3.20450
83.80000	3.04886
83.71667	3.23753
83.63333	3.62726
83.56667	2.81106
83.48333	3.17872
83.35000	4.16958
83.21667	4.07130
83.06667	3.56378
82.91667	3.34338
82.75000	3.89391
82.61667	3.83252
82.50000	3.62614
82.38333	3.81158
82.31667	3.97785
82.26667	3.42200
82.21667	3.46937
82.18333	3.43844
82.13333	3.12684
82.03333	3.55750
81.93333	4.30766
81.85000	3.14585
81.75000	4.31104
81.68333	4.30782
81.61667	3.49128
81.51667	3.90503
81.41667	3.23463
81.28333	3.39107
81.18333	2.83394
81.13333	2.92867
81.06667	4.25916
81.00000	2.29823
80.93333	2.96637
80.85000	3.31792
80.73333	3.52012
80.58333	3.51480
80.45000	3.90293
80.33333	4.13864
80.25000	3.35256
80.16667	3.93934
80.01667	4.13381
79.86667	4.15750
79.71667	4.08306
79.56667	4.05680
79.43333	4.31056
79.28333	3.89955
79.21667	3.62726
79.13333	3.71862
79.05000	4.22436
78.95000	4.30524
78.80000	4.20309
78.63333	3.79176
78.46667	3.54187
78.30000	3.82012
78.11667	1.49783
77.96667	1.35556
77.81667	0.90654
77.65000	1.47640
77.53333	2.71181
77.43333	2.74871
77.31667	3.07383
77.21667	4.06228
77.08333	3.82946
76.91667	4.23467
76.76667	3.69944
76.65000	3.88408
76.55000	4.30556
76.46667	3.57281
76.36667	4.25835
76.28333	4.22323
76.18333	4.28429
76.03333	4.30572
75.88333	4.31233
75.76667	3.90503
75.56667	4.03311
75.40000	3.21384
75.28333	0.74559
75.18333	0.81213
75.08333	1.58805
75.03333	1.96763
74.96667	3.42813
74.88333	3.62291
74.75000	3.93612
74.58333	4.09547
74.45000	3.85299
74.31667	3.98913
74.16667	4.05390
74.03333	4.23564
73.88333	4.31152
73.71667	4.05712
73.53333	4.27124
73.35000	4.13542
73.15000	3.78435
72.96667	2.84409
72.83333	2.82105
72.71667	2.90563
72.58333	3.62324
72.46667	3.58860
72.30000	4.00846
72.11667	3.78129
71.96667	2.63270
71.76667	1.24069
71.60000	0.26500
71.41667	0.84597
71.21667	1.62462
71.03333	2.11908
70.88333	2.81557
70.71667	2.79720
70.56667	3.43908
70.41667	1.60271
70.28333	0.87658
70.15000	0.36376
70.01667	0.28143
69.90000	0.28481
69.76667	2.14598
69.65000	4.22098
69.51667	3.55315
69.36667	3.71555
69.23333	4.10110
69.13333	4.05503
69.03333	3.01519
68.95000	4.30347
68.86667	4.05519
68.81667	3.75648
68.76667	3.76792
68.73333	4.18215
68.70000	4.30927
68.65000	4.31426
68.55000	4.31346
68.45000	4.31442
68.36667	4.31474
68.25000	4.31023
68.13333	4.31587
68.08333	4.31168
68.06667	4.31023
68.06667	4.31668
68.06667	4.31636
68.06667	4.31523
68.08333	4.31410
68.08333	4.31281
68.08333	4.31491
68.06667	4.31394
68.05000	4.31603
68.06667	4.31748
68.06667	4.31072
68.06667	4.31410
68.06667	4.31297
68.06667	4.31442
68.06667	4.32071
68.06667	4.31442
68.06667	4.31829
68.06667	4.31571
68.06667	4.31668
68.06667	4.31458
68.06667	4.31684
68.06667	4.31281
68.06667	4.31410
68.06667	4.31265
68.06667	4.31571
68.06667	4.31603
68.06667	4.31684
68.06667	4.31362
68.06667	4.31394
68.06667	4.31845
68.06667	4.31636
68.06667	4.32006
68.06667	4.30830
68.06667	4.31958
68.06667	4.31603
68.06667	4.31313
68.06667	4.31619
68.06667	4.31974
68.06667	4.32232
68.08333	4.31716
68.08333	4.31346
68.08333	4.31410
68.08333	4.31329
68.08333	4.31684
68.08333	4.31845
68.08333	4.32200
68.08333	4.31442
68.08333	4.31587
68.08333	4.31700
68.08333	4.31652
68.08333	4.31684
68.08333	4.31668
68.08333	4.31619
68.08333	4.31297
68.08333	4.31910
68.08333	4.31748
68.08333	4.31603
68.08333	4.31039
68.08333	4.31442
68.08333	4.31587
68.08333	4.31781
68.08333	4.31249
68.06667	4.31571
68.06667	4.31168
68.06667	4.32087
68.06667	4.31168
68.06667	4.32280
68.06667	4.31716
68.06667	4.31990
68.06667	4.32119
68.06667	4.31813
68.06667	4.31297
68.05000	4.31184
68.05000	4.32264
68.05000	4.31700
68.05000	4.32022
68.05000	4.31974
68.03333	0.14255
67.86667	0.10276
67.31667	0.70886
66.96667	0.91927
66.90000	-0.00245
66.66667	1.71436
66.35000	4.29863
66.10000	4.30653
65.90000	4.30459
65.71667	4.30653
65.60000	4.30234
65.45000	4.30782
65.21667	4.31120
65.00000	4.31346
64.78333	4.31120
64.53333	4.31426
64.31667	3.90857
64.10000	4.31410
63.88333	4.30685
63.75000	4.31329
63.63333	4.31813
63.50000	4.31168
63.33333	4.31346
63.10000	4.31668
62.85000	4.31184
62.56667	4.31555
62.25000	4.31023
62.00000	4.31603
61.76667	4.31152
61.60000	4.31990
61.41667	4.31329
61.28333	4.31813
61.18333	4.31007
61.11667	4.31507
61.00000	4.32135
60.85000	4.31152
60.63333	4.32022
60.43333	4.32200
60.20000	4.31603
60.03333	4.32119
59.88333	4.32038
59.76667	4.31893
59.63333	4.31539
59.46667	4.31748
59.33333	3.86894
59.16667	4.31201
59.05000	4.32312
58.98333	4.31861
58.93333	4.31378
58.85000	4.31765
58.76667	4.31845
58.68333	4.31426
58.61667	4.32022
58.56667	4.18215
58.38333	4.05535
58.15000	2.39120
57.96667	1.98970
57.85000	3.90293
57.76667	4.31329
57.70000	4.31748
57.63333	4.31732
57.55000	4.31539
57.50000	4.31926
57.46667	4.32151
57.45000	4.31652
57.43333	4.31926
57.43333	4.31442
57.43333	3.51335
57.43333	0.36940
57.43333	0.26484
57.43333	0.10356
57.43333	0.09760
57.45000	0.09261
57.45000	0.08858
57.45000	0.08133
57.45000	0.04862
57.45000	0.04041
57.45000	-0.00084
57.45000	-0.00084
57.45000	0.03670
57.45000	0.02848
57.45000	0.02816
57.45000	0.02832
57.45000	0.02430
57.46667	0.03042
57.46667	0.03122
57.46667	0.02381
57.46667	0.02623
57.46667	0.02913
57.46667	0.02977
57.46667	0.02430
57.46667	0.02671
57.46667	0.02462
57.46667	0.02236
57.46667	0.02816
57.46667	0.02639
57.46667	0.02413
57.46667	0.02381
57.46667	0.02655
57.46667	0.02752
57.46667	0.02703
57.46667	0.02575
57.46667	0.02365
57.46667	0.02929
57.46667	0.02301
57.46667	0.02736
57.46667	0.02655
57.46667	0.02285
57.46667	0.02204
57.46667	0.03219
57.46667	0.03171
57.46667	0.02881
57.46667	0.02736
57.46667	0.02478
57.46667	0.02510
57.46667	0.02526
57.46667	0.02752
57.46667	0.02575
57.46667	0.02687
57.46667	0.03026
57.46667	0.02993
57.46667	0.02059
57.46667	0.02494
57.46667	0.02526
57.46667	0.02655
57.46667	0.02800
57.46667	0.02832
57.46667	0.02301
57.46667	0.02365
57.46667	0.02639
57.46667	0.02172
57.46667	0.02865
57.46667	0.03171
57.46667	0.02558
57.46667	0.02832
57.46667	0.02220
57.46667	0.02430
57.46667	0.02542
57.46667	0.02059
57.46667	0.01785
57.46667	0.02365
57.46667	0.02365
57.46667	0.02752
57.46667	0.02091
57.46667	0.02526
57.46667	0.02091